{
    "model": "numeric phase",
    "label": "UFI HD120 alt",
    "valid_range": [
        928.997e-9,
        1685.899e-9
    ],
    "wavelength_nm": [
        905.031,
        905.431,
        905.83,
        906.23,
        906.629,
        907.028,
        907.428,
        907.827,
        908.227,
        908.626,
        909.026,
        909.425,
        909.824,
        910.224,
        910.623,
        911.023,
        911.422,
        911.821,
        912.221,
        912.62,
        913.02,
        913.419,
        913.819,
        914.218,
        914.617,
        915.017,
        915.416,
        915.816,
        916.215,
        916.615,
        917.014,
        917.413,
        917.813,
        918.212,
        918.612,
        919.011,
        919.41,
        919.81,
        920.209,
        920.609,
        921.008,
        921.408,
        921.807,
        922.206,
        922.606,
        923.005,
        923.405,
        923.804,
        924.204,
        924.603,
        925.002,
        925.402,
        925.801,
        926.201,
        926.6,
        926.999,
        927.399,
        927.798,
        928.198,
        928.597,
        928.997,
        929.396,
        929.795,
        930.195,
        930.594,
        930.994,
        931.393,
        931.793,
        932.192,
        932.591,
        932.991,
        933.39,
        933.79,
        934.189,
        934.588,
        934.988,
        935.387,
        935.787,
        936.186,
        936.586,
        936.985,
        937.384,
        937.784,
        938.183,
        938.583,
        938.982,
        939.382,
        939.781,
        940.18,
        940.58,
        940.979,
        941.379,
        941.778,
        942.177,
        942.577,
        942.976,
        943.376,
        943.775,
        944.175,
        944.574,
        944.973,
        945.373,
        945.772,
        946.172,
        946.571,
        946.97,
        947.37,
        947.769,
        948.169,
        948.568,
        948.968,
        949.367,
        949.766,
        950.166,
        950.565,
        950.965,
        951.364,
        951.764,
        952.163,
        952.562,
        952.962,
        953.361,
        953.761,
        954.16,
        954.559,
        954.959,
        955.358,
        955.758,
        956.157,
        956.557,
        956.956,
        957.355,
        957.755,
        958.154,
        958.554,
        958.953,
        959.353,
        959.752,
        960.151,
        960.551,
        960.95,
        961.35,
        961.749,
        962.148,
        962.548,
        962.947,
        963.347,
        963.746,
        964.146,
        964.545,
        964.944,
        965.344,
        965.743,
        966.143,
        966.542,
        966.942,
        967.341,
        967.74,
        968.14,
        968.539,
        968.939,
        969.338,
        969.737,
        970.137,
        970.536,
        970.936,
        971.335,
        971.735,
        972.134,
        972.533,
        972.933,
        973.332,
        973.732,
        974.131,
        974.531,
        974.93,
        975.329,
        975.729,
        976.128,
        976.528,
        976.927,
        977.326,
        977.726,
        978.125,
        978.525,
        978.924,
        979.324,
        979.723,
        980.122,
        980.522,
        980.921,
        981.321,
        981.72,
        982.12,
        982.519,
        982.918,
        983.318,
        983.717,
        984.117,
        984.516,
        984.915,
        985.315,
        985.714,
        986.114,
        986.513,
        986.913,
        987.312,
        987.711,
        988.111,
        988.51,
        988.91,
        989.309,
        989.709,
        990.108,
        990.507,
        990.907,
        991.306,
        991.706,
        992.105,
        992.504,
        992.904,
        993.303,
        993.703,
        994.102,
        994.502,
        994.901,
        995.3,
        995.7,
        996.099,
        996.499,
        996.898,
        997.297,
        997.697,
        998.096,
        998.496,
        998.895,
        999.295,
        999.694,
        1000.093,
        1000.493,
        1000.892,
        1001.292,
        1001.691,
        1002.091,
        1002.49,
        1002.889,
        1003.289,
        1003.688,
        1004.088,
        1004.487,
        1004.886,
        1005.286,
        1005.685,
        1006.085,
        1006.484,
        1006.884,
        1007.283,
        1007.682,
        1008.082,
        1008.481,
        1008.881,
        1009.28,
        1009.68,
        1010.079,
        1010.478,
        1010.878,
        1011.277,
        1011.677,
        1012.076,
        1012.475,
        1012.875,
        1013.274,
        1013.674,
        1014.073,
        1014.473,
        1014.872,
        1015.271,
        1015.671,
        1016.07,
        1016.47,
        1016.869,
        1017.269,
        1017.668,
        1018.067,
        1018.467,
        1018.866,
        1019.266,
        1019.665,
        1020.064,
        1020.464,
        1020.863,
        1021.263,
        1021.662,
        1022.062,
        1022.461,
        1022.86,
        1023.26,
        1023.659,
        1024.059,
        1024.458,
        1024.858,
        1025.257,
        1025.656,
        1026.056,
        1026.455,
        1026.855,
        1027.254,
        1027.653,
        1028.053,
        1028.452,
        1028.852,
        1029.251,
        1029.651,
        1030.05,
        1030.449,
        1030.849,
        1031.248,
        1031.648,
        1032.047,
        1032.447,
        1032.846,
        1033.245,
        1033.645,
        1034.044,
        1034.444,
        1034.843,
        1035.242,
        1035.642,
        1036.041,
        1036.441,
        1036.84,
        1037.24,
        1037.639,
        1038.038,
        1038.438,
        1038.837,
        1039.237,
        1039.636,
        1040.036,
        1040.435,
        1040.834,
        1041.234,
        1041.633,
        1042.033,
        1042.432,
        1042.831,
        1043.231,
        1043.63,
        1044.03,
        1044.429,
        1044.829,
        1045.228,
        1045.627,
        1046.027,
        1046.426,
        1046.826,
        1047.225,
        1047.625,
        1048.024,
        1048.423,
        1048.823,
        1049.222,
        1049.622,
        1050.021,
        1050.42,
        1050.82,
        1051.219,
        1051.619,
        1052.018,
        1052.418,
        1052.817,
        1053.216,
        1053.616,
        1054.015,
        1054.415,
        1054.814,
        1055.213,
        1055.613,
        1056.012,
        1056.412,
        1056.811,
        1057.211,
        1057.61,
        1058.009,
        1058.409,
        1058.808,
        1059.208,
        1059.607,
        1060.007,
        1060.406,
        1060.805,
        1061.205,
        1061.604,
        1062.004,
        1062.403,
        1062.802,
        1063.202,
        1063.601,
        1064.001,
        1064.4,
        1064.8,
        1065.199,
        1065.598,
        1065.998,
        1066.397,
        1066.797,
        1067.196,
        1067.596,
        1067.995,
        1068.394,
        1068.794,
        1069.193,
        1069.593,
        1069.992,
        1070.391,
        1070.791,
        1071.19,
        1071.59,
        1071.989,
        1072.389,
        1072.788,
        1073.187,
        1073.587,
        1073.986,
        1074.386,
        1074.785,
        1075.185,
        1075.584,
        1075.983,
        1076.383,
        1076.782,
        1077.182,
        1077.581,
        1077.98,
        1078.38,
        1078.779,
        1079.179,
        1079.578,
        1079.978,
        1080.377,
        1080.776,
        1081.176,
        1081.575,
        1081.975,
        1082.374,
        1082.774,
        1083.173,
        1083.572,
        1083.972,
        1084.371,
        1084.771,
        1085.17,
        1085.569,
        1085.969,
        1086.368,
        1086.768,
        1087.167,
        1087.567,
        1087.966,
        1088.365,
        1088.765,
        1089.164,
        1089.564,
        1089.963,
        1090.363,
        1090.762,
        1091.161,
        1091.561,
        1091.96,
        1092.36,
        1092.759,
        1093.158,
        1093.558,
        1093.957,
        1094.357,
        1094.756,
        1095.156,
        1095.555,
        1095.954,
        1096.354,
        1096.753,
        1097.153,
        1097.552,
        1097.952,
        1098.351,
        1098.75,
        1099.15,
        1099.549,
        1099.949,
        1100.348,
        1100.747,
        1101.147,
        1101.546,
        1101.946,
        1102.345,
        1102.745,
        1103.144,
        1103.543,
        1103.943,
        1104.342,
        1104.742,
        1105.141,
        1105.54,
        1105.94,
        1106.339,
        1106.739,
        1107.138,
        1107.538,
        1107.937,
        1108.336,
        1108.736,
        1109.135,
        1109.535,
        1109.934,
        1110.334,
        1110.733,
        1111.132,
        1111.532,
        1111.931,
        1112.331,
        1112.73,
        1113.129,
        1113.529,
        1113.928,
        1114.328,
        1114.727,
        1115.127,
        1115.526,
        1115.925,
        1116.325,
        1116.724,
        1117.124,
        1117.523,
        1117.923,
        1118.322,
        1118.721,
        1119.121,
        1119.52,
        1119.92,
        1120.319,
        1120.718,
        1121.118,
        1121.517,
        1121.917,
        1122.316,
        1122.716,
        1123.115,
        1123.514,
        1123.914,
        1124.313,
        1124.713,
        1125.112,
        1125.512,
        1125.911,
        1126.31,
        1126.71,
        1127.109,
        1127.509,
        1127.908,
        1128.307,
        1128.707,
        1129.106,
        1129.506,
        1129.905,
        1130.305,
        1130.704,
        1131.103,
        1131.503,
        1131.902,
        1132.302,
        1132.701,
        1133.101,
        1133.5,
        1133.899,
        1134.299,
        1134.698,
        1135.098,
        1135.497,
        1135.896,
        1136.296,
        1136.695,
        1137.095,
        1137.494,
        1137.894,
        1138.293,
        1138.692,
        1139.092,
        1139.491,
        1139.891,
        1140.29,
        1140.69,
        1141.089,
        1141.488,
        1141.888,
        1142.287,
        1142.687,
        1143.086,
        1143.485,
        1143.885,
        1144.284,
        1144.684,
        1145.083,
        1145.483,
        1145.882,
        1146.281,
        1146.681,
        1147.08,
        1147.48,
        1147.879,
        1148.279,
        1148.678,
        1149.077,
        1149.477,
        1149.876,
        1150.276,
        1150.675,
        1151.074,
        1151.474,
        1151.873,
        1152.273,
        1152.672,
        1153.072,
        1153.471,
        1153.87,
        1154.27,
        1154.669,
        1155.069,
        1155.468,
        1155.867,
        1156.267,
        1156.666,
        1157.066,
        1157.465,
        1157.865,
        1158.264,
        1158.663,
        1159.063,
        1159.462,
        1159.862,
        1160.261,
        1160.661,
        1161.06,
        1161.459,
        1161.859,
        1162.258,
        1162.658,
        1163.057,
        1163.456,
        1163.856,
        1164.255,
        1164.655,
        1165.054,
        1165.454,
        1165.853,
        1166.252,
        1166.652,
        1167.051,
        1167.451,
        1167.85,
        1168.25,
        1168.649,
        1169.048,
        1169.448,
        1169.847,
        1170.247,
        1170.646,
        1171.045,
        1171.445,
        1171.844,
        1172.244,
        1172.643,
        1173.043,
        1173.442,
        1173.841,
        1174.241,
        1174.64,
        1175.04,
        1175.439,
        1175.839,
        1176.238,
        1176.637,
        1177.037,
        1177.436,
        1177.836,
        1178.235,
        1178.634,
        1179.034,
        1179.433,
        1179.833,
        1180.232,
        1180.632,
        1181.031,
        1181.43,
        1181.83,
        1182.229,
        1182.629,
        1183.028,
        1183.428,
        1183.827,
        1184.226,
        1184.626,
        1185.025,
        1185.425,
        1185.824,
        1186.223,
        1186.623,
        1187.022,
        1187.422,
        1187.821,
        1188.221,
        1188.62,
        1189.019,
        1189.419,
        1189.818,
        1190.218,
        1190.617,
        1191.017,
        1191.416,
        1191.815,
        1192.215,
        1192.614,
        1193.014,
        1193.413,
        1193.812,
        1194.212,
        1194.611,
        1195.011,
        1195.41,
        1195.81,
        1196.209,
        1196.608,
        1197.008,
        1197.407,
        1197.807,
        1198.206,
        1198.606,
        1199.005,
        1199.404,
        1199.804,
        1200.203,
        1200.603,
        1201.002,
        1201.401,
        1201.801,
        1202.2,
        1202.6,
        1202.999,
        1203.399,
        1203.798,
        1204.197,
        1204.597,
        1204.996,
        1205.396,
        1205.795,
        1206.194,
        1206.594,
        1206.993,
        1207.393,
        1207.792,
        1208.192,
        1208.591,
        1208.99,
        1209.39,
        1209.789,
        1210.189,
        1210.588,
        1210.988,
        1211.387,
        1211.786,
        1212.186,
        1212.585,
        1212.985,
        1213.384,
        1213.783,
        1214.183,
        1214.582,
        1214.982,
        1215.381,
        1215.781,
        1216.18,
        1216.579,
        1216.979,
        1217.378,
        1217.778,
        1218.177,
        1218.577,
        1218.976,
        1219.375,
        1219.775,
        1220.174,
        1220.574,
        1220.973,
        1221.372,
        1221.772,
        1222.171,
        1222.571,
        1222.97,
        1223.37,
        1223.769,
        1224.168,
        1224.568,
        1224.967,
        1225.367,
        1225.766,
        1226.166,
        1226.565,
        1226.964,
        1227.364,
        1227.763,
        1228.163,
        1228.562,
        1228.961,
        1229.361,
        1229.76,
        1230.16,
        1230.559,
        1230.959,
        1231.358,
        1231.757,
        1232.157,
        1232.556,
        1232.956,
        1233.355,
        1233.755,
        1234.154,
        1234.553,
        1234.953,
        1235.352,
        1235.752,
        1236.151,
        1236.55,
        1236.95,
        1237.349,
        1237.749,
        1238.148,
        1238.548,
        1238.947,
        1239.346,
        1239.746,
        1240.145,
        1240.545,
        1240.944,
        1241.344,
        1241.743,
        1242.142,
        1242.542,
        1242.941,
        1243.341,
        1243.74,
        1244.139,
        1244.539,
        1244.938,
        1245.338,
        1245.737,
        1246.137,
        1246.536,
        1246.935,
        1247.335,
        1247.734,
        1248.134,
        1248.533,
        1248.933,
        1249.332,
        1249.731,
        1250.131,
        1250.53,
        1250.93,
        1251.329,
        1251.728,
        1252.128,
        1252.527,
        1252.927,
        1253.326,
        1253.726,
        1254.125,
        1254.524,
        1254.924,
        1255.323,
        1255.723,
        1256.122,
        1256.522,
        1256.921,
        1257.32,
        1257.72,
        1258.119,
        1258.519,
        1258.918,
        1259.317,
        1259.717,
        1260.116,
        1260.516,
        1260.915,
        1261.315,
        1261.714,
        1262.113,
        1262.513,
        1262.912,
        1263.312,
        1263.711,
        1264.11,
        1264.51,
        1264.909,
        1265.309,
        1265.708,
        1266.108,
        1266.507,
        1266.906,
        1267.306,
        1267.705,
        1268.105,
        1268.504,
        1268.904,
        1269.303,
        1269.702,
        1270.102,
        1270.501,
        1270.901,
        1271.3,
        1271.699,
        1272.099,
        1272.498,
        1272.898,
        1273.297,
        1273.697,
        1274.096,
        1274.495,
        1274.895,
        1275.294,
        1275.694,
        1276.093,
        1276.493,
        1276.892,
        1277.291,
        1277.691,
        1278.09,
        1278.49,
        1278.889,
        1279.288,
        1279.688,
        1280.087,
        1280.487,
        1280.886,
        1281.286,
        1281.685,
        1282.084,
        1282.484,
        1282.883,
        1283.283,
        1283.682,
        1284.082,
        1284.481,
        1284.88,
        1285.28,
        1285.679,
        1286.079,
        1286.478,
        1286.877,
        1287.277,
        1287.676,
        1288.076,
        1288.475,
        1288.875,
        1289.274,
        1289.673,
        1290.073,
        1290.472,
        1290.872,
        1291.271,
        1291.671,
        1292.07,
        1292.469,
        1292.869,
        1293.268,
        1293.668,
        1294.067,
        1294.466,
        1294.866,
        1295.265,
        1295.665,
        1296.064,
        1296.464,
        1296.863,
        1297.262,
        1297.662,
        1298.061,
        1298.461,
        1298.86,
        1299.26,
        1299.659,
        1300.058,
        1300.458,
        1300.857,
        1301.257,
        1301.656,
        1302.055,
        1302.455,
        1302.854,
        1303.254,
        1303.653,
        1304.053,
        1304.452,
        1304.851,
        1305.251,
        1305.65,
        1306.05,
        1306.449,
        1306.849,
        1307.248,
        1307.647,
        1308.047,
        1308.446,
        1308.846,
        1309.245,
        1309.644,
        1310.044,
        1310.443,
        1310.843,
        1311.242,
        1311.642,
        1312.041,
        1312.44,
        1312.84,
        1313.239,
        1313.639,
        1314.038,
        1314.437,
        1314.837,
        1315.236,
        1315.636,
        1316.035,
        1316.435,
        1316.834,
        1317.233,
        1317.633,
        1318.032,
        1318.432,
        1318.831,
        1319.231,
        1319.63,
        1320.029,
        1320.429,
        1320.828,
        1321.228,
        1321.627,
        1322.026,
        1322.426,
        1322.825,
        1323.225,
        1323.624,
        1324.024,
        1324.423,
        1324.822,
        1325.222,
        1325.621,
        1326.021,
        1326.42,
        1326.82,
        1327.219,
        1327.618,
        1328.018,
        1328.417,
        1328.817,
        1329.216,
        1329.615,
        1330.015,
        1330.414,
        1330.814,
        1331.213,
        1331.613,
        1332.012,
        1332.411,
        1332.811,
        1333.21,
        1333.61,
        1334.009,
        1334.409,
        1334.808,
        1335.207,
        1335.607,
        1336.006,
        1336.406,
        1336.805,
        1337.204,
        1337.604,
        1338.003,
        1338.403,
        1338.802,
        1339.202,
        1339.601,
        1340.0,
        1340.4,
        1340.799,
        1341.199,
        1341.598,
        1341.998,
        1342.397,
        1342.796,
        1343.196,
        1343.595,
        1343.995,
        1344.394,
        1344.793,
        1345.193,
        1345.592,
        1345.992,
        1346.391,
        1346.791,
        1347.19,
        1347.589,
        1347.989,
        1348.388,
        1348.788,
        1349.187,
        1349.587,
        1349.986,
        1350.385,
        1350.785,
        1351.184,
        1351.584,
        1351.983,
        1352.382,
        1352.782,
        1353.181,
        1353.581,
        1353.98,
        1354.38,
        1354.779,
        1355.178,
        1355.578,
        1355.977,
        1356.377,
        1356.776,
        1357.176,
        1357.575,
        1357.974,
        1358.374,
        1358.773,
        1359.173,
        1359.572,
        1359.971,
        1360.371,
        1360.77,
        1361.17,
        1361.569,
        1361.969,
        1362.368,
        1362.767,
        1363.167,
        1363.566,
        1363.966,
        1364.365,
        1364.764,
        1365.164,
        1365.563,
        1365.963,
        1366.362,
        1366.762,
        1367.161,
        1367.56,
        1367.96,
        1368.359,
        1368.759,
        1369.158,
        1369.558,
        1369.957,
        1370.356,
        1370.756,
        1371.155,
        1371.555,
        1371.954,
        1372.353,
        1372.753,
        1373.152,
        1373.552,
        1373.951,
        1374.351,
        1374.75,
        1375.149,
        1375.549,
        1375.948,
        1376.348,
        1376.747,
        1377.147,
        1377.546,
        1377.945,
        1378.345,
        1378.744,
        1379.144,
        1379.543,
        1379.942,
        1380.342,
        1380.741,
        1381.141,
        1381.54,
        1381.94,
        1382.339,
        1382.738,
        1383.138,
        1383.537,
        1383.937,
        1384.336,
        1384.736,
        1385.135,
        1385.534,
        1385.934,
        1386.333,
        1386.733,
        1387.132,
        1387.531,
        1387.931,
        1388.33,
        1388.73,
        1389.129,
        1389.529,
        1389.928,
        1390.327,
        1390.727,
        1391.126,
        1391.526,
        1391.925,
        1392.325,
        1392.724,
        1393.123,
        1393.523,
        1393.922,
        1394.322,
        1394.721,
        1395.12,
        1395.52,
        1395.919,
        1396.319,
        1396.718,
        1397.118,
        1397.517,
        1397.916,
        1398.316,
        1398.715,
        1399.115,
        1399.514,
        1399.914,
        1400.313,
        1400.712,
        1401.112,
        1401.511,
        1401.911,
        1402.31,
        1402.709,
        1403.109,
        1403.508,
        1403.908,
        1404.307,
        1404.707,
        1405.106,
        1405.505,
        1405.905,
        1406.304,
        1406.704,
        1407.103,
        1407.503,
        1407.902,
        1408.301,
        1408.701,
        1409.1,
        1409.5,
        1409.899,
        1410.298,
        1410.698,
        1411.097,
        1411.497,
        1411.896,
        1412.296,
        1412.695,
        1413.094,
        1413.494,
        1413.893,
        1414.293,
        1414.692,
        1415.091,
        1415.491,
        1415.89,
        1416.29,
        1416.689,
        1417.089,
        1417.488,
        1417.887,
        1418.287,
        1418.686,
        1419.086,
        1419.485,
        1419.885,
        1420.284,
        1420.683,
        1421.083,
        1421.482,
        1421.882,
        1422.281,
        1422.68,
        1423.08,
        1423.479,
        1423.879,
        1424.278,
        1424.678,
        1425.077,
        1425.476,
        1425.876,
        1426.275,
        1426.675,
        1427.074,
        1427.474,
        1427.873,
        1428.272,
        1428.672,
        1429.071,
        1429.471,
        1429.87,
        1430.269,
        1430.669,
        1431.068,
        1431.468,
        1431.867,
        1432.267,
        1432.666,
        1433.065,
        1433.465,
        1433.864,
        1434.264,
        1434.663,
        1435.063,
        1435.462,
        1435.861,
        1436.261,
        1436.66,
        1437.06,
        1437.459,
        1437.858,
        1438.258,
        1438.657,
        1439.057,
        1439.456,
        1439.856,
        1440.255,
        1440.654,
        1441.054,
        1441.453,
        1441.853,
        1442.252,
        1442.652,
        1443.051,
        1443.45,
        1443.85,
        1444.249,
        1444.649,
        1445.048,
        1445.447,
        1445.847,
        1446.246,
        1446.646,
        1447.045,
        1447.445,
        1447.844,
        1448.243,
        1448.643,
        1449.042,
        1449.442,
        1449.841,
        1450.241,
        1450.64,
        1451.039,
        1451.439,
        1451.838,
        1452.238,
        1452.637,
        1453.036,
        1453.436,
        1453.835,
        1454.235,
        1454.634,
        1455.034,
        1455.433,
        1455.832,
        1456.232,
        1456.631,
        1457.031,
        1457.43,
        1457.83,
        1458.229,
        1458.628,
        1459.028,
        1459.427,
        1459.827,
        1460.226,
        1460.625,
        1461.025,
        1461.424,
        1461.824,
        1462.223,
        1462.623,
        1463.022,
        1463.421,
        1463.821,
        1464.22,
        1464.62,
        1465.019,
        1465.419,
        1465.818,
        1466.217,
        1466.617,
        1467.016,
        1467.416,
        1467.815,
        1468.214,
        1468.614,
        1469.013,
        1469.413,
        1469.812,
        1470.212,
        1470.611,
        1471.01,
        1471.41,
        1471.809,
        1472.209,
        1472.608,
        1473.007,
        1473.407,
        1473.806,
        1474.206,
        1474.605,
        1475.005,
        1475.404,
        1475.803,
        1476.203,
        1476.602,
        1477.002,
        1477.401,
        1477.801,
        1478.2,
        1478.599,
        1478.999,
        1479.398,
        1479.798,
        1480.197,
        1480.596,
        1480.996,
        1481.395,
        1481.795,
        1482.194,
        1482.594,
        1482.993,
        1483.392,
        1483.792,
        1484.191,
        1484.591,
        1484.99,
        1485.39,
        1485.789,
        1486.188,
        1486.588,
        1486.987,
        1487.387,
        1487.786,
        1488.185,
        1488.585,
        1488.984,
        1489.384,
        1489.783,
        1490.183,
        1490.582,
        1490.981,
        1491.381,
        1491.78,
        1492.18,
        1492.579,
        1492.979,
        1493.378,
        1493.777,
        1494.177,
        1494.576,
        1494.976,
        1495.375,
        1495.774,
        1496.174,
        1496.573,
        1496.973,
        1497.372,
        1497.772,
        1498.171,
        1498.57,
        1498.97,
        1499.369,
        1499.769,
        1500.168,
        1500.568,
        1500.967,
        1501.366,
        1501.766,
        1502.165,
        1502.565,
        1502.964,
        1503.363,
        1503.763,
        1504.162,
        1504.562,
        1504.961,
        1505.361,
        1505.76,
        1506.159,
        1506.559,
        1506.958,
        1507.358,
        1507.757,
        1508.157,
        1508.556,
        1508.955,
        1509.355,
        1509.754,
        1510.154,
        1510.553,
        1510.952,
        1511.352,
        1511.751,
        1512.151,
        1512.55,
        1512.95,
        1513.349,
        1513.748,
        1514.148,
        1514.547,
        1514.947,
        1515.346,
        1515.746,
        1516.145,
        1516.544,
        1516.944,
        1517.343,
        1517.743,
        1518.142,
        1518.541,
        1518.941,
        1519.34,
        1519.74,
        1520.139,
        1520.539,
        1520.938,
        1521.337,
        1521.737,
        1522.136,
        1522.536,
        1522.935,
        1523.334,
        1523.734,
        1524.133,
        1524.533,
        1524.932,
        1525.332,
        1525.731,
        1526.13,
        1526.53,
        1526.929,
        1527.329,
        1527.728,
        1528.128,
        1528.527,
        1528.926,
        1529.326,
        1529.725,
        1530.125,
        1530.524,
        1530.923,
        1531.323,
        1531.722,
        1532.122,
        1532.521,
        1532.921,
        1533.32,
        1533.719,
        1534.119,
        1534.518,
        1534.918,
        1535.317,
        1535.717,
        1536.116,
        1536.515,
        1536.915,
        1537.314,
        1537.714,
        1538.113,
        1538.512,
        1538.912,
        1539.311,
        1539.711,
        1540.11,
        1540.51,
        1540.909,
        1541.308,
        1541.708,
        1542.107,
        1542.507,
        1542.906,
        1543.306,
        1543.705,
        1544.104,
        1544.504,
        1544.903,
        1545.303,
        1545.702,
        1546.101,
        1546.501,
        1546.9,
        1547.3,
        1547.699,
        1548.099,
        1548.498,
        1548.897,
        1549.297,
        1549.696,
        1550.096,
        1550.495,
        1550.895,
        1551.294,
        1551.693,
        1552.093,
        1552.492,
        1552.892,
        1553.291,
        1553.69,
        1554.09,
        1554.489,
        1554.889,
        1555.288,
        1555.688,
        1556.087,
        1556.486,
        1556.886,
        1557.285,
        1557.685,
        1558.084,
        1558.484,
        1558.883,
        1559.282,
        1559.682,
        1560.081,
        1560.481,
        1560.88,
        1561.279,
        1561.679,
        1562.078,
        1562.478,
        1562.877,
        1563.277,
        1563.676,
        1564.075,
        1564.475,
        1564.874,
        1565.274,
        1565.673,
        1566.073,
        1566.472,
        1566.871,
        1567.271,
        1567.67,
        1568.07,
        1568.469,
        1568.868,
        1569.268,
        1569.667,
        1570.067,
        1570.466,
        1570.866,
        1571.265,
        1571.664,
        1572.064,
        1572.463,
        1572.863,
        1573.262,
        1573.661,
        1574.061,
        1574.46,
        1574.86,
        1575.259,
        1575.659,
        1576.058,
        1576.457,
        1576.857,
        1577.256,
        1577.656,
        1578.055,
        1578.455,
        1578.854,
        1579.253,
        1579.653,
        1580.052,
        1580.452,
        1580.851,
        1581.25,
        1581.65,
        1582.049,
        1582.449,
        1582.848,
        1583.248,
        1583.647,
        1584.046,
        1584.446,
        1584.845,
        1585.245,
        1585.644,
        1586.044,
        1586.443,
        1586.842,
        1587.242,
        1587.641,
        1588.041,
        1588.44,
        1588.839,
        1589.239,
        1589.638,
        1590.038,
        1590.437,
        1590.837,
        1591.236,
        1591.635,
        1592.035,
        1592.434,
        1592.834,
        1593.233,
        1593.633,
        1594.032,
        1594.431,
        1594.831,
        1595.23,
        1595.63,
        1596.029,
        1596.428,
        1596.828,
        1597.227,
        1597.627,
        1598.026,
        1598.426,
        1598.825,
        1599.224,
        1599.624,
        1600.023,
        1600.423,
        1600.822,
        1601.222,
        1601.621,
        1602.02,
        1602.42,
        1602.819,
        1603.219,
        1603.618,
        1604.017,
        1604.417,
        1604.816,
        1605.216,
        1605.615,
        1606.015,
        1606.414,
        1606.813,
        1607.213,
        1607.612,
        1608.012,
        1608.411,
        1608.811,
        1609.21,
        1609.609,
        1610.009,
        1610.408,
        1610.808,
        1611.207,
        1611.606,
        1612.006,
        1612.405,
        1612.805,
        1613.204,
        1613.604,
        1614.003,
        1614.402,
        1614.802,
        1615.201,
        1615.601,
        1616.0,
        1616.4,
        1616.799,
        1617.198,
        1617.598,
        1617.997,
        1618.397,
        1618.796,
        1619.195,
        1619.595,
        1619.994,
        1620.394,
        1620.793,
        1621.193,
        1621.592,
        1621.991,
        1622.391,
        1622.79,
        1623.19,
        1623.589,
        1623.989,
        1624.388,
        1624.787,
        1625.187,
        1625.586,
        1625.986,
        1626.385,
        1626.784,
        1627.184,
        1627.583,
        1627.983,
        1628.382,
        1628.782,
        1629.181,
        1629.58,
        1629.98,
        1630.379,
        1630.779,
        1631.178,
        1631.577,
        1631.977,
        1632.376,
        1632.776,
        1633.175,
        1633.575,
        1633.974,
        1634.373,
        1634.773,
        1635.172,
        1635.572,
        1635.971,
        1636.371,
        1636.77,
        1637.169,
        1637.569,
        1637.968,
        1638.368,
        1638.767,
        1639.166,
        1639.566,
        1639.965,
        1640.365,
        1640.764,
        1641.164,
        1641.563,
        1641.962,
        1642.362,
        1642.761,
        1643.161,
        1643.56,
        1643.96,
        1644.359,
        1644.758,
        1645.158,
        1645.557,
        1645.957,
        1646.356,
        1646.755,
        1647.155,
        1647.554,
        1647.954,
        1648.353,
        1648.753,
        1649.152,
        1649.551,
        1649.951,
        1650.35,
        1650.75,
        1651.149,
        1651.549,
        1651.948,
        1652.347,
        1652.747,
        1653.146,
        1653.546,
        1653.945,
        1654.344,
        1654.744,
        1655.143,
        1655.543,
        1655.942,
        1656.342,
        1656.741,
        1657.14,
        1657.54,
        1657.939,
        1658.339,
        1658.738,
        1659.138,
        1659.537,
        1659.936,
        1660.336,
        1660.735,
        1661.135,
        1661.534,
        1661.933,
        1662.333,
        1662.732,
        1663.132,
        1663.531,
        1663.931,
        1664.33,
        1664.729,
        1665.129,
        1665.528,
        1665.928,
        1666.327,
        1666.727,
        1667.126,
        1667.525,
        1667.925,
        1668.324,
        1668.724,
        1669.123,
        1669.522,
        1669.922,
        1670.321,
        1670.721,
        1671.12,
        1671.52,
        1671.919,
        1672.318,
        1672.718,
        1673.117,
        1673.517,
        1673.916,
        1674.316,
        1674.715,
        1675.114,
        1675.514,
        1675.913,
        1676.313,
        1676.712,
        1677.111,
        1677.511,
        1677.91,
        1678.31,
        1678.709,
        1679.109,
        1679.508,
        1679.907,
        1680.307,
        1680.706,
        1681.106,
        1681.505,
        1681.904,
        1682.304,
        1682.703,
        1683.103,
        1683.502,
        1683.902,
        1684.301,
        1684.7,
        1685.1,
        1685.499,
        1685.899,
        1686.298,
        1686.698,
        1687.097,
        1687.496,
        1687.896,
        1688.295,
        1688.695,
        1689.094,
        1689.493,
        1689.893,
        1690.292,
        1690.692,
        1691.091,
        1691.491,
        1691.89,
        1692.289,
        1692.689,
        1693.088,
        1693.488,
        1693.887,
        1694.287,
        1694.686,
        1695.085,
        1695.485,
        1695.884,
        1696.284,
        1696.683,
        1697.082,
        1697.482,
        1697.881,
        1698.281,
        1698.68,
        1699.08,
        1699.479,
        1699.878,
        1700.278,
        1700.677,
        1701.077,
        1701.476,
        1701.876,
        1702.275,
        1702.674,
        1703.074,
        1703.473,
        1703.873,
        1704.272,
        1704.671,
        1705.071,
        1705.47,
        1705.87,
        1706.269,
        1706.669,
        1707.068,
        1707.467,
        1707.867,
        1708.266,
        1708.666,
        1709.065,
        1709.465,
        1709.864
    ],
    "phase": [
        -1942.99533333333,
        -1941.49533333333,
        -1939.98766666667,
        -1938.478,
        -1936.97133333333,
        -1935.47533333333,
        -1933.97466666667,
        -1932.471,
        -1930.97033333333,
        -1929.47933333333,
        -1927.98466666667,
        -1926.48766666667,
        -1924.992,
        -1923.50533333333,
        -1922.01733333333,
        -1920.52566666667,
        -1919.03533333333,
        -1917.55366666667,
        -1916.072,
        -1914.58666666667,
        -1913.10166666667,
        -1911.62466666667,
        -1910.14933333333,
        -1908.66966666667,
        -1907.19066666667,
        -1905.71833333333,
        -1904.25,
        -1902.77633333333,
        -1901.303,
        -1899.83533333333,
        -1898.37333333333,
        -1896.906,
        -1895.438,
        -1893.975,
        -1892.52,
        -1891.05866666667,
        -1889.59633333333,
        -1888.138,
        -1886.68866666667,
        -1885.23366666667,
        -1883.77666666667,
        -1882.32366666667,
        -1880.88066666667,
        -1879.431,
        -1877.97966666667,
        -1876.53033333333,
        -1875.094,
        -1873.65033333333,
        -1872.20466666667,
        -1870.76166666667,
        -1869.32866666667,
        -1867.89133333333,
        -1866.45033333333,
        -1865.01166666667,
        -1863.584,
        -1862.154,
        -1860.71933333333,
        -1859.28533333333,
        -1857.862,
        -1856.438,
        -1855.00866666667,
        -1853.58,
        -1852.161,
        -1850.74333333333,
        -1849.32066666667,
        -1847.898,
        -1846.48266666667,
        -1845.07066666667,
        -1843.65366666667,
        -1842.23633333333,
        -1840.825,
        -1839.419,
        -1838.00766666667,
        -1836.59533333333,
        -1835.18966666667,
        -1833.78933333333,
        -1832.38433333333,
        -1830.97833333333,
        -1829.57633333333,
        -1828.18233333333,
        -1826.782,
        -1825.381,
        -1823.984,
        -1822.59566666667,
        -1821.202,
        -1819.806,
        -1818.41366666667,
        -1817.03166666667,
        -1815.643,
        -1814.25266666667,
        -1812.86466666667,
        -1811.488,
        -1810.10533333333,
        -1808.72033333333,
        -1807.33766666667,
        -1805.965,
        -1804.588,
        -1803.20866666667,
        -1801.831,
        -1800.463,
        -1799.092,
        -1797.718,
        -1796.34533333333,
        -1794.98133333333,
        -1793.61666666667,
        -1792.24733333333,
        -1790.879,
        -1789.519,
        -1788.16066666667,
        -1786.79766666667,
        -1785.43466666667,
        -1784.079,
        -1782.72633333333,
        -1781.36833333333,
        -1780.011,
        -1778.65933333333,
        -1777.31266666667,
        -1775.95966666667,
        -1774.60633333333,
        -1773.25866666667,
        -1771.918,
        -1770.57066666667,
        -1769.22233333333,
        -1767.87866666667,
        -1766.54433333333,
        -1765.20266666667,
        -1763.859,
        -1762.52,
        -1761.19033333333,
        -1759.85366666667,
        -1758.51466666667,
        -1757.18,
        -1755.85666666667,
        -1754.525,
        -1753.19166666667,
        -1751.86,
        -1750.541,
        -1749.215,
        -1747.887,
        -1746.56133333333,
        -1745.24566666667,
        -1743.92633333333,
        -1742.60266666667,
        -1741.28133333333,
        -1739.97033333333,
        -1738.65666666667,
        -1737.33866666667,
        -1736.02266666667,
        -1734.71566666667,
        -1733.40733333333,
        -1732.09466666667,
        -1730.78266666667,
        -1729.47933333333,
        -1728.177,
        -1726.86966666667,
        -1725.563,
        -1724.264,
        -1722.96666666667,
        -1721.664,
        -1720.36166666667,
        -1719.06566666667,
        -1717.77433333333,
        -1716.47666666667,
        -1715.17866666667,
        -1713.88666666667,
        -1712.60066666667,
        -1711.30866666667,
        -1710.01533333333,
        -1708.727,
        -1707.44666666667,
        -1706.159,
        -1704.87,
        -1703.58533333333,
        -1702.311,
        -1701.02933333333,
        -1699.74533333333,
        -1698.46533333333,
        -1697.19633333333,
        -1695.91866666667,
        -1694.63966666667,
        -1693.363,
        -1692.09833333333,
        -1690.82633333333,
        -1689.55133333333,
        -1688.27933333333,
        -1687.018,
        -1685.75166666667,
        -1684.48166666667,
        -1683.21433333333,
        -1681.957,
        -1680.69533333333,
        -1679.431,
        -1678.16766666667,
        -1676.91433333333,
        -1675.65866666667,
        -1674.39933333333,
        -1673.141,
        -1671.891,
        -1670.641,
        -1669.386,
        -1668.13133333333,
        -1666.885,
        -1665.64033333333,
        -1664.39066666667,
        -1663.14066666667,
        -1661.89766666667,
        -1660.65766666667,
        -1659.412,
        -1658.16566666667,
        -1656.92666666667,
        -1655.692,
        -1654.45133333333,
        -1653.21033333333,
        -1651.97466666667,
        -1650.74566666667,
        -1649.50933333333,
        -1648.27233333333,
        -1647.04,
        -1645.81533333333,
        -1644.58466666667,
        -1643.35133333333,
        -1642.12266666667,
        -1640.903,
        -1639.67633333333,
        -1638.44766666667,
        -1637.221,
        -1636.007,
        -1634.78466666667,
        -1633.561,
        -1632.34,
        -1631.129,
        -1629.91233333333,
        -1628.693,
        -1627.47533333333,
        -1626.26766666667,
        -1625.05566666667,
        -1623.84066666667,
        -1622.62766666667,
        -1621.424,
        -1620.217,
        -1619.006,
        -1617.79733333333,
        -1616.59666666667,
        -1615.394,
        -1614.18833333333,
        -1612.98333333333,
        -1611.78666666667,
        -1610.58966666667,
        -1609.38833333333,
        -1608.18733333333,
        -1606.99333333333,
        -1605.801,
        -1604.60433333333,
        -1603.40766666667,
        -1602.21766666667,
        -1601.03033333333,
        -1599.83833333333,
        -1598.64566666667,
        -1597.45866666667,
        -1596.27633333333,
        -1595.08866666667,
        -1593.89966666667,
        -1592.71666666667,
        -1591.539,
        -1590.356,
        -1589.17133333333,
        -1587.99133333333,
        -1586.81933333333,
        -1585.63966666667,
        -1584.46,
        -1583.28466666667,
        -1582.116,
        -1580.94133333333,
        -1579.76433333333,
        -1578.593,
        -1577.428,
        -1576.258,
        -1575.086,
        -1573.918,
        -1572.75766666667,
        -1571.592,
        -1570.424,
        -1569.25966666667,
        -1568.10266666667,
        -1566.94233333333,
        -1565.77833333333,
        -1564.619,
        -1563.46566666667,
        -1562.31,
        -1561.15166666667,
        -1559.99533333333,
        -1558.846,
        -1557.69433333333,
        -1556.53933333333,
        -1555.38833333333,
        -1554.24166666667,
        -1553.09433333333,
        -1551.94366666667,
        -1550.795,
        -1549.65233333333,
        -1548.50966666667,
        -1547.36333333333,
        -1546.21966666667,
        -1545.081,
        -1543.94366666667,
        -1542.80166666667,
        -1541.661,
        -1540.526,
        -1539.39233333333,
        -1538.255,
        -1537.11766666667,
        -1535.986,
        -1534.85766666667,
        -1533.724,
        -1532.59066666667,
        -1531.462,
        -1530.338,
        -1529.20866666667,
        -1528.079,
        -1526.955,
        -1525.835,
        -1524.71,
        -1523.584,
        -1522.46233333333,
        -1521.347,
        -1520.22533333333,
        -1519.10366666667,
        -1517.98533333333,
        -1516.874,
        -1515.757,
        -1514.63833333333,
        -1513.52466666667,
        -1512.41633333333,
        -1511.30333333333,
        -1510.19033333333,
        -1509.07966666667,
        -1507.975,
        -1506.86666666667,
        -1505.75566666667,
        -1504.64866666667,
        -1503.547,
        -1502.44266666667,
        -1501.337,
        -1500.23366666667,
        -1499.13533333333,
        -1498.035,
        -1496.933,
        -1495.83333333333,
        -1494.73833333333,
        -1493.64233333333,
        -1492.54433333333,
        -1491.448,
        -1490.35666666667,
        -1489.26433333333,
        -1488.16966666667,
        -1487.077,
        -1485.988,
        -1484.9,
        -1483.80966666667,
        -1482.72033333333,
        -1481.63533333333,
        -1480.551,
        -1479.46333333333,
        -1478.377,
        -1477.29566666667,
        -1476.215,
        -1475.132,
        -1474.05033333333,
        -1472.972,
        -1471.89666666667,
        -1470.81633333333,
        -1469.73766666667,
        -1468.663,
        -1467.59066666667,
        -1466.515,
        -1465.43966666667,
        -1464.36833333333,
        -1463.301,
        -1462.228,
        -1461.156,
        -1460.08866666667,
        -1459.02466666667,
        -1457.95633333333,
        -1456.887,
        -1455.82333333333,
        -1454.76233333333,
        -1453.697,
        -1452.631,
        -1451.56966666667,
        -1450.51266666667,
        -1449.452,
        -1448.39066666667,
        -1447.33366666667,
        -1446.28,
        -1445.223,
        -1444.16466666667,
        -1443.11033333333,
        -1442.06033333333,
        -1441.007,
        -1439.953,
        -1438.90233333333,
        -1437.85533333333,
        -1436.80633333333,
        -1435.75566666667,
        -1434.708,
        -1433.66433333333,
        -1432.61966666667,
        -1431.574,
        -1430.53,
        -1429.48966666667,
        -1428.44833333333,
        -1427.40533333333,
        -1426.36433333333,
        -1425.32666666667,
        -1424.289,
        -1423.24966666667,
        -1422.21266666667,
        -1421.17866666667,
        -1420.14533333333,
        -1419.10933333333,
        -1418.07533333333,
        -1417.04466666667,
        -1416.01466666667,
        -1414.98166666667,
        -1413.95133333333,
        -1412.924,
        -1411.89766666667,
        -1410.869,
        -1409.84166666667,
        -1408.817,
        -1407.79466666667,
        -1406.769,
        -1405.74533333333,
        -1404.72433333333,
        -1403.706,
        -1402.68333333333,
        -1401.662,
        -1400.64433333333,
        -1399.62933333333,
        -1398.61033333333,
        -1397.59166666667,
        -1396.57866666667,
        -1395.56733333333,
        -1394.551,
        -1393.53533333333,
        -1392.52466666667,
        -1391.51533333333,
        -1390.50366666667,
        -1389.491,
        -1388.484,
        -1387.47833333333,
        -1386.46933333333,
        -1385.462,
        -1384.45666666667,
        -1383.45366666667,
        -1382.44833333333,
        -1381.44333333333,
        -1380.44166666667,
        -1379.442,
        -1378.44133333333,
        -1377.44033333333,
        -1376.442,
        -1375.44533333333,
        -1374.447,
        -1373.44833333333,
        -1372.453,
        -1371.45933333333,
        -1370.46466666667,
        -1369.46833333333,
        -1368.47633333333,
        -1367.48666666667,
        -1366.495,
        -1365.502,
        -1364.513,
        -1363.52666666667,
        -1362.53833333333,
        -1361.54833333333,
        -1360.56166666667,
        -1359.57833333333,
        -1358.59333333333,
        -1357.60666666667,
        -1356.62333333333,
        -1355.643,
        -1354.662,
        -1353.679,
        -1352.699,
        -1351.72133333333,
        -1350.743,
        -1349.76266666667,
        -1348.786,
        -1347.81166666667,
        -1346.83633333333,
        -1345.85966666667,
        -1344.885,
        -1343.914,
        -1342.943,
        -1341.969,
        -1340.997,
        -1340.031,
        -1339.064,
        -1338.09333333333,
        -1337.12433333333,
        -1336.162,
        -1335.197,
        -1334.23066666667,
        -1333.26666666667,
        -1332.30566666667,
        -1331.34466666667,
        -1330.38066666667,
        -1329.41933333333,
        -1328.46066666667,
        -1327.50233333333,
        -1326.54233333333,
        -1325.584,
        -1324.62966666667,
        -1323.67533333333,
        -1322.71933333333,
        -1321.765,
        -1320.813,
        -1319.86266666667,
        -1318.91,
        -1317.95933333333,
        -1317.01133333333,
        -1316.064,
        -1315.11533333333,
        -1314.167,
        -1313.22166666667,
        -1312.27766666667,
        -1311.332,
        -1310.388,
        -1309.44633333333,
        -1308.50566666667,
        -1307.56366666667,
        -1306.622,
        -1305.68366666667,
        -1304.746,
        -1303.808,
        -1302.86966666667,
        -1301.93466666667,
        -1301.0,
        -1300.06466666667,
        -1299.12833333333,
        -1298.195,
        -1297.26266666667,
        -1296.33066666667,
        -1295.39733333333,
        -1294.467,
        -1293.53833333333,
        -1292.609,
        -1291.678,
        -1290.75033333333,
        -1289.82333333333,
        -1288.897,
        -1287.96866666667,
        -1287.04366666667,
        -1286.11966666667,
        -1285.19433333333,
        -1284.26766666667,
        -1283.34366666667,
        -1282.421,
        -1281.49766666667,
        -1280.572,
        -1279.651,
        -1278.73033333333,
        -1277.80866666667,
        -1276.88433333333,
        -1275.96366666667,
        -1275.04533333333,
        -1274.12366666667,
        -1273.20066666667,
        -1272.28166666667,
        -1271.365,
        -1270.44533333333,
        -1269.523,
        -1268.60466666667,
        -1267.69633333333,
        -1266.77166666667,
        -1265.849,
        -1264.931,
        -1264.02366666667,
        -1263.10033333333,
        -1262.17666666667,
        -1261.259,
        -1260.35133333333,
        -1259.43033333333,
        -1258.50766666667,
        -1257.59133333333,
        -1256.67966666667,
        -1255.76333333333,
        -1254.84333333333,
        -1253.92666666667,
        -1253.016,
        -1252.10066666667,
        -1251.18066666667,
        -1250.26466666667,
        -1249.359,
        -1248.44433333333,
        -1247.52033333333,
        -1246.60433333333,
        -1245.699,
        -1244.78666666667,
        -1243.863,
        -1242.94833333333,
        -1242.04366666667,
        -1241.13566666667,
        -1240.21333333333,
        -1239.298,
        -1238.392,
        -1237.48366666667,
        -1236.56533333333,
        -1235.651,
        -1234.74533333333,
        -1233.83966666667,
        -1232.92133333333,
        -1232.00766666667,
        -1231.10566666667,
        -1230.206,
        -1229.28466666667,
        -1228.37266666667,
        -1227.47233333333,
        -1226.57666666667,
        -1225.65633333333,
        -1224.74566666667,
        -1223.84566666667,
        -1222.955,
        -1222.03766666667,
        -1221.12666666667,
        -1220.22933333333,
        -1219.342,
        -1218.42566666667,
        -1217.51866666667,
        -1216.623,
        -1215.73466666667,
        -1214.827,
        -1213.92366666667,
        -1213.03066666667,
        -1212.154,
        -1211.246,
        -1210.344,
        -1209.455,
        -1208.58166666667,
        -1207.681,
        -1206.78566666667,
        -1205.903,
        -1205.03433333333,
        -1204.143,
        -1203.25466666667,
        -1202.379,
        -1201.52133333333,
        -1200.645,
        -1199.75333333333,
        -1198.88633333333,
        -1198.04566666667,
        -1197.19533333333,
        -1196.361,
        -1195.54533333333,
        -1194.74833333333,
        -1193.964,
        -1193.19566666667,
        -1192.44666666667,
        -1191.716,
        -1191.003,
        -1190.30366666667,
        -1189.64333333333,
        -1188.962,
        -1188.32,
        -1187.64966666667,
        -1186.94933333333,
        -1186.25333333333,
        -1185.556,
        -1184.85933333333,
        -1184.16233333333,
        -1183.459,
        -1182.73966666667,
        -1182.01333333333,
        -1181.29333333333,
        -1180.57433333333,
        -1179.85,
        -1179.119,
        -1178.402,
        -1177.67,
        -1176.88033333333,
        -1176.07133333333,
        -1175.25366666667,
        -1174.433,
        -1173.60366666667,
        -1172.75733333333,
        -1171.907,
        -1171.05833333333,
        -1170.20366666667,
        -1169.33133333333,
        -1168.463,
        -1167.60633333333,
        -1166.74933333333,
        -1165.86866666667,
        -1164.99633333333,
        -1164.13933333333,
        -1163.28566666667,
        -1162.39933333333,
        -1161.524,
        -1160.66733333333,
        -1159.81666666667,
        -1158.92666666667,
        -1158.049,
        -1157.191,
        -1156.34466666667,
        -1155.45433333333,
        -1154.57733333333,
        -1153.72,
        -1152.87833333333,
        -1151.98733333333,
        -1151.109,
        -1150.252,
        -1149.41333333333,
        -1148.52333333333,
        -1147.64666666667,
        -1146.79033333333,
        -1145.957,
        -1145.067,
        -1144.18966666667,
        -1143.33366666667,
        -1142.50166666667,
        -1141.616,
        -1140.74066666667,
        -1139.88666666667,
        -1139.056,
        -1138.17366666667,
        -1137.3,
        -1136.44733333333,
        -1135.61933333333,
        -1134.74266666667,
        -1133.86966666667,
        -1133.01833333333,
        -1132.19133333333,
        -1131.31933333333,
        -1130.44866666667,
        -1129.599,
        -1128.77466666667,
        -1127.90933333333,
        -1127.043,
        -1126.19666666667,
        -1125.375,
        -1124.51766666667,
        -1123.65633333333,
        -1122.81633333333,
        -1122.002,
        -1121.154,
        -1120.29533333333,
        -1119.45866666667,
        -1118.64466666667,
        -1117.81633333333,
        -1116.98266666667,
        -1116.17266666667,
        -1115.39233333333,
        -1114.59766666667,
        -1113.78066666667,
        -1112.98933333333,
        -1112.234,
        -1111.48,
        -1110.81333333333,
        -1110.15533333333,
        -1109.518,
        -1108.85566666667,
        -1108.11533333333,
        -1107.37233333333,
        -1106.628,
        -1105.872,
        -1105.10466666667,
        -1104.34266666667,
        -1103.59133333333,
        -1102.825,
        -1102.035,
        -1101.257,
        -1100.49766666667,
        -1099.727,
        -1098.92333333333,
        -1098.187,
        -1097.501,
        -1096.71566666667,
        -1095.91333333333,
        -1095.114,
        -1094.32366666667,
        -1093.523,
        -1092.68766666667,
        -1091.858,
        -1091.03966666667,
        -1090.21833333333,
        -1089.36766666667,
        -1088.53133333333,
        -1087.71866666667,
        -1086.91,
        -1086.057,
        -1085.21933333333,
        -1084.41,
        -1083.609,
        -1082.75533333333,
        -1081.91866666667,
        -1081.111,
        -1080.31666666667,
        -1079.462,
        -1078.62333333333,
        -1077.81533333333,
        -1077.029,
        -1076.174,
        -1075.33366666667,
        -1074.52566666667,
        -1073.74533333333,
        -1072.89,
        -1072.047,
        -1071.23766666667,
        -1070.46433333333,
        -1069.60833333333,
        -1068.76566666667,
        -1067.95566666667,
        -1067.18533333333,
        -1066.32966666667,
        -1065.485,
        -1064.674,
        -1063.90866666667,
        -1063.05466666667,
        -1062.21333333333,
        -1061.40466666667,
        -1060.63633333333,
        -1059.78666666667,
        -1058.94766666667,
        -1058.13933333333,
        -1057.36933333333,
        -1056.52466666667,
        -1055.68866666667,
        -1054.882,
        -1054.109,
        -1053.269,
        -1052.43666666667,
        -1051.63166666667,
        -1050.85766666667,
        -1050.02366666667,
        -1049.19533333333,
        -1048.39266666667,
        -1047.61666666667,
        -1046.78733333333,
        -1045.961,
        -1045.15866666667,
        -1044.38233333333,
        -1043.558,
        -1042.736,
        -1041.93666666667,
        -1041.15966666667,
        -1040.34066666667,
        -1039.52133333333,
        -1038.724,
        -1037.94833333333,
        -1037.13333333333,
        -1036.31633333333,
        -1035.52066666667,
        -1034.746,
        -1033.93533333333,
        -1033.119,
        -1032.32433333333,
        -1031.55166666667,
        -1030.74466666667,
        -1029.93033333333,
        -1029.13733333333,
        -1028.36566666667,
        -1027.563,
        -1026.75,
        -1025.95833333333,
        -1025.189,
        -1024.39,
        -1023.57766666667,
        -1022.78733333333,
        -1022.01866666667,
        -1021.22333333333,
        -1020.413,
        -1019.62433333333,
        -1018.85833333333,
        -1018.068,
        -1017.259,
        -1016.47166666667,
        -1015.707,
        -1014.92033333333,
        -1014.11233333333,
        -1013.32533333333,
        -1012.56333333333,
        -1011.781,
        -1010.97366666667,
        -1010.18933333333,
        -1009.429,
        -1008.65133333333,
        -1007.84666666667,
        -1007.064,
        -1006.30633333333,
        -1005.53466666667,
        -1004.73233333333,
        -1003.95166666667,
        -1003.196,
        -1002.42833333333,
        -1001.62833333333,
        -1000.85,
        -1000.09866666667,
        -999.337,
        -998.536333333333,
        -997.757,
        -997.008333333333,
        -996.246,
        -995.420666666667,
        -994.610333333333,
        -993.83,
        -993.045666666667,
        -992.210333333333,
        -991.412333333333,
        -990.652666666667,
        -989.895,
        -989.110666666667,
        -988.345666666667,
        -987.603666666667,
        -986.859666666667,
        -986.067,
        -985.292333333333,
        -984.544333333333,
        -983.795,
        -982.98,
        -982.18,
        -981.41,
        -980.653333333333,
        -979.85,
        -979.071,
        -978.322333333333,
        -977.582333333333,
        -976.801666666667,
        -976.038333333333,
        -975.296666666667,
        -974.560333333333,
        -973.771,
        -973.001333333333,
        -972.256333333333,
        -971.522,
        -970.731,
        -969.959666666667,
        -969.215666666667,
        -968.485666666667,
        -967.696,
        -966.926333333333,
        -966.183666666667,
        -965.457333333333,
        -964.668333333333,
        -963.899666666667,
        -963.158333333333,
        -962.436666666667,
        -961.647666666667,
        -960.88,
        -960.14,
        -959.420666666667,
        -958.633666666667,
        -957.866666666667,
        -957.128,
        -956.413333333333,
        -955.627666666667,
        -954.861666666667,
        -954.123666666667,
        -953.411,
        -952.625666666667,
        -951.858666666667,
        -951.120333333333,
        -950.411,
        -949.628333333333,
        -948.865333333333,
        -948.128,
        -947.419,
        -946.641666666667,
        -945.881333333333,
        -945.147,
        -944.440333333333,
        -943.665,
        -942.905666666667,
        -942.171333333333,
        -941.464,
        -940.693,
        -939.935333333333,
        -939.203333333333,
        -938.499333333333,
        -937.729666666667,
        -936.972333333333,
        -936.241666666667,
        -935.539333333334,
        -934.772,
        -934.016666666667,
        -933.288666666667,
        -932.591,
        -931.825333333333,
        -931.071333333333,
        -930.346,
        -929.651,
        -928.887333333333,
        -928.132666666667,
        -927.408,
        -926.716333333333,
        -925.954333333333,
        -925.200333333333,
        -924.477,
        -923.785333333333,
        -923.027,
        -922.273333333333,
        -921.548666666667,
        -920.857333333333,
        -920.104,
        -919.354,
        -918.631333333333,
        -917.939666666667,
        -917.190333333333,
        -916.441666666667,
        -915.720333333333,
        -915.029666666667,
        -914.282666666667,
        -913.537,
        -912.817666666667,
        -912.128666666667,
        -911.385,
        -910.64,
        -909.921333333333,
        -909.234333333333,
        -908.492333333333,
        -907.746666666667,
        -907.029666666667,
        -906.345,
        -905.605,
        -904.860333333333,
        -904.142666666667,
        -903.459666666667,
        -902.722,
        -901.977666666667,
        -901.261,
        -900.578,
        -899.843,
        -899.100333333333,
        -898.385,
        -897.704333333333,
        -896.971666666667,
        -896.23,
        -895.516666666667,
        -894.837,
        -894.108,
        -893.368333333333,
        -892.655333333333,
        -891.978333333333,
        -891.251666666667,
        -890.514666666667,
        -889.804,
        -889.128666666667,
        -888.404666666667,
        -887.668,
        -886.958666666667,
        -886.286,
        -885.565,
        -884.830666666667,
        -884.124,
        -883.452333333333,
        -882.734666666667,
        -882.001666666667,
        -881.295333333333,
        -880.627,
        -879.911666666667,
        -879.179,
        -878.473333333333,
        -877.805,
        -877.091,
        -876.360333333333,
        -875.655666666667,
        -874.989333333333,
        -874.279666666667,
        -873.551666666667,
        -872.849,
        -872.183,
        -871.474666666667,
        -870.748,
        -870.048,
        -869.385666666667,
        -868.679666666667,
        -867.953,
        -867.252333333333,
        -866.588333333333,
        -865.883666666667,
        -865.158666666667,
        -864.459666666667,
        -863.798666666667,
        -863.097666666667,
        -862.376333333333,
        -861.681666666667,
        -861.021666666667,
        -860.322,
        -859.601333333333,
        -858.906,
        -858.246666666667,
        -857.549666666667,
        -856.831666666667,
        -856.139666666667,
        -855.482666666667,
        -854.786333333333,
        -854.068333333333,
        -853.376,
        -852.721,
        -852.028333333333,
        -851.313333333333,
        -850.624,
        -849.968666666667,
        -849.276,
        -848.560666666667,
        -847.869666666667,
        -847.216333333333,
        -846.529333333333,
        -845.824333333333,
        -845.146,
        -844.503333333333,
        -843.820666666667,
        -843.112666666667,
        -842.428,
        -841.781333333333,
        -841.098333333333,
        -840.392,
        -839.71,
        -839.068,
        -838.386,
        -837.675666666667,
        -836.992666666667,
        -836.358,
        -835.685,
        -834.980333333333,
        -834.300333333333,
        -833.671333333333,
        -833.009333333333,
        -832.316333333333,
        -831.645666666667,
        -831.027,
        -830.361333333333,
        -829.652666666667,
        -828.971,
        -828.374666666667,
        -827.742666666667,
        -827.058333333333,
        -826.385,
        -825.792333333333,
        -825.167,
        -824.475,
        -823.760333333333,
        -823.137333333333,
        -822.529333333333,
        -821.915,
        -821.353666666667,
        -821.11,
        -821.155333333333,
        -821.227,
        -821.046,
        -820.366666666667,
        -819.713,
        -819.865,
        -819.698,
        -818.696333333333,
        -817.574,
        -817.1,
        -816.652,
        -816.454333333333,
        -815.472,
        -814.691666666667,
        -813.455,
        -812.383,
        -811.741,
        -810.823333333333,
        -810.355666666667,
        -810.079,
        -809.692666666667,
        -809.549,
        -809.258333333333,
        -809.077666666667,
        -808.893333333333,
        -808.925666666667,
        -809.319,
        -808.756,
        -808.114333333333,
        -807.465,
        -806.85,
        -805.955666666667,
        -805.201333333333,
        -804.819333333333,
        -804.518666666667,
        -804.557666666667,
        -804.301333333333,
        -804.535333333333,
        -804.655333333333,
        -805.022666666667,
        -804.530666666667,
        -803.328666666667,
        -801.839,
        -800.774666666667,
        -800.327,
        -799.468666666667,
        -799.432333333333,
        -799.813333333333,
        -799.530333333333,
        -799.503333333333,
        -799.588333333333,
        -799.745666666667,
        -799.509,
        -798.849,
        -798.500666666667,
        -798.294333333333,
        -798.068666666667,
        -797.566,
        -796.710666666667,
        -796.216,
        -795.971,
        -795.167,
        -794.771333333333,
        -795.403,
        -795.132333333333,
        -794.842333333333,
        -795.289,
        -794.667333333333,
        -794.404666666667,
        -794.027333333333,
        -793.689666666667,
        -793.878666666667,
        -793.781,
        -793.859666666667,
        -793.438,
        -792.642333333333,
        -792.144666666667,
        -791.871333333333,
        -791.481666666667,
        -791.904,
        -791.294666666667,
        -791.564333333333,
        -791.212333333333,
        -790.797666666667,
        -790.465666666667,
        -789.992,
        -789.603,
        -788.837333333333,
        -788.325333333333,
        -788.097333333333,
        -787.977666666667,
        -788.075666666667,
        -787.359666666667,
        -787.622,
        -787.038666666667,
        -787.353666666667,
        -786.404,
        -785.328,
        -784.664,
        -784.333,
        -784.101,
        -783.192333333333,
        -782.186333333333,
        -781.297,
        -780.937333333333,
        -780.36,
        -779.565333333333,
        -778.873666666667,
        -778.460333333333,
        -777.844666666667,
        -777.211333333333,
        -776.607,
        -775.918666666667,
        -775.291,
        -774.688,
        -774.088333333333,
        -773.414666666667,
        -772.757666666667,
        -772.125666666667,
        -771.506333333333,
        -770.828,
        -770.187666666667,
        -769.562333333333,
        -768.952333333333,
        -768.295666666667,
        -767.655,
        -767.032,
        -766.422333333333,
        -765.764,
        -765.128666666667,
        -764.512666666667,
        -763.91,
        -763.255333333333,
        -762.619333333333,
        -762.001,
        -761.396333333333,
        -760.745,
        -760.113666666667,
        -759.5,
        -758.894666666667,
        -758.246,
        -757.617,
        -757.006,
        -756.404333333333,
        -755.764,
        -755.143666666667,
        -754.54,
        -753.942666666667,
        -753.308666666667,
        -752.693,
        -752.092333333333,
        -751.496,
        -750.864333333333,
        -750.250333333333,
        -749.652333333333,
        -749.057666666667,
        -748.428,
        -747.815333333333,
        -747.218333333333,
        -746.624333333333,
        -745.994333333333,
        -745.381666666667,
        -744.785333333333,
        -744.190666666667,
        -743.562,
        -742.950666666667,
        -742.356333333333,
        -741.762666666667,
        -741.134666666667,
        -740.525666666667,
        -739.933,
        -739.34,
        -738.715,
        -738.107333333333,
        -737.517,
        -736.924,
        -736.297333333333,
        -735.689666666667,
        -735.101,
        -734.507666666667,
        -733.883333333333,
        -733.277333333333,
        -732.689666666667,
        -732.096,
        -731.473,
        -730.869666666667,
        -730.284666666667,
        -729.692666666667,
        -729.073,
        -728.472,
        -727.889666666667,
        -727.296666666667,
        -726.675666666667,
        -726.074,
        -725.492,
        -724.898333333333,
        -724.280333333333,
        -723.681333333333,
        -723.103333333333,
        -722.509333333333,
        -721.892666666667,
        -721.296,
        -720.719,
        -720.125,
        -719.51,
        -718.914666666667,
        -718.339666666667,
        -717.744666666667,
        -717.130666666667,
        -716.536666666667,
        -715.963666666667,
        -715.368,
        -714.756666666667,
        -714.164666666667,
        -713.594,
        -712.998,
        -712.388333333333,
        -711.799333333333,
        -711.231,
        -710.635666666667,
        -710.028666666667,
        -709.441333333333,
        -708.876333333333,
        -708.279,
        -707.672,
        -707.085666666667,
        -706.520333333333,
        -705.922666666667,
        -705.318333333333,
        -704.734666666667,
        -704.173666666667,
        -703.575333333333,
        -702.972666666667,
        -702.391666666667,
        -701.831666666667,
        -701.233666666667,
        -700.633666666667,
        -700.054,
        -699.497,
        -698.896,
        -698.296333333333,
        -697.718333333333,
        -697.162333333333,
        -696.562333333333,
        -695.965666666667,
        -695.391,
        -694.839,
        -694.237666666667,
        -693.643666666667,
        -693.071333333333,
        -692.521666666667,
        -691.919666666667,
        -691.326666666667,
        -690.755333333333,
        -690.207666666667,
        -689.604,
        -689.012666666667,
        -688.443333333333,
        -687.897333333333,
        -687.293,
        -686.704666666667,
        -686.139,
        -685.596,
        -684.989666666667,
        -684.402,
        -683.838,
        -683.292333333333,
        -682.690333333333,
        -682.105,
        -681.543333333333,
        -680.997333333333,
        -680.395,
        -679.811,
        -679.251666666667,
        -678.704,
        -678.105666666667,
        -677.524666666667,
        -676.967333333333,
        -676.419333333333,
        -675.820333333333,
        -675.24,
        -674.683333333333,
        -674.132333333333,
        -673.537,
        -672.959666666667,
        -672.406,
        -671.854333333333,
        -671.258666666667,
        -670.682,
        -670.128666666667,
        -669.574,
        -668.981666666667,
        -668.407,
        -667.856666666667,
        -667.299666666667,
        -666.707,
        -666.133,
        -665.583333333333,
        -665.023333333333,
        -664.431666666667,
        -663.858666666667,
        -663.311,
        -662.748,
        -662.155,
        -661.584,
        -661.038333333333,
        -660.473666666667,
        -659.883,
        -659.313666666667,
        -658.771333333333,
        -658.202666666667,
        -657.611,
        -657.043333333333,
        -656.502333333333,
        -655.932333333333,
        -655.344,
        -654.779,
        -654.241666666667,
        -653.668666666667,
        -653.080666666667,
        -652.517,
        -651.980666666667,
        -651.406,
        -650.821666666667,
        -650.261666666667,
        -649.730333333333,
        -649.152666666667,
        -648.571333333333,
        -648.014666666667,
        -647.484333333333,
        -646.907333333333,
        -646.33,
        -645.777333333333,
        -645.251666666667,
        -644.671333333333,
        -644.097,
        -643.548,
        -643.025333333333,
        -642.445333333333,
        -641.874666666667,
        -641.329666666667,
        -640.811333333333,
        -640.227333333333,
        -639.658,
        -639.114666666667,
        -638.597333333333,
        -638.014,
        -637.449,
        -636.910333333333,
        -636.394,
        -635.812,
        -635.250666666667,
        -634.715333333333,
        -634.196666666667,
        -633.618666666667,
        -633.059666666667,
        -632.526666666667,
        -632.006,
        -631.428666666667,
        -630.872333333333,
        -630.342,
        -629.819333333333,
        -629.245666666667,
        -628.693,
        -628.165333333333,
        -627.640666666667,
        -627.068,
        -626.517,
        -625.991333333333,
        -625.463,
        -624.895666666667,
        -624.349,
        -623.828333333333,
        -623.299333333333,
        -622.733,
        -622.188666666667,
        -621.669666666667,
        -621.137,
        -620.573666666667,
        -620.032,
        -619.516,
        -618.980666666667,
        -618.418333333333,
        -617.878666666667,
        -617.364666666667,
        -616.827666666667,
        -616.27,
        -615.734,
        -615.224666666667,
        -614.684333333333,
        -614.127666666667,
        -613.594333333333,
        -613.086666666667,
        -612.544666666667,
        -611.991666666667,
        -611.463,
        -610.959666666667,
        -610.414,
        -609.862333333333,
        -609.335,
        -608.833666666667,
        -608.287333333333,
        -607.740333333333,
        -607.216,
        -606.717666666667,
        -606.167,
        -605.620666666667,
        -605.098666666667,
        -604.603333333333,
        -604.052,
        -603.509666666667,
        -602.991666666667,
        -602.501,
        -601.944333333333,
        -601.403,
        -600.888333333333,
        -600.396666666667,
        -599.843333333333,
        -599.307,
        -598.796333333333,
        -598.304666666667,
        -597.753,
        -597.220333333333,
        -596.713,
        -596.217,
        -595.67,
        -595.140333333333,
        -594.635666666667,
        -594.137,
        -593.591,
        -593.065333333333,
        -592.564333333333,
        -592.064,
        -591.523,
        -591.001,
        -590.504333333333,
        -590.001333333333,
        -589.463,
        -588.944,
        -588.45,
        -587.945333333333,
        -587.411333333333,
        -586.897333333333,
        -586.409,
        -585.902333333333,
        -585.371,
        -584.860333333333,
        -584.374666666667,
        -583.867,
        -583.340666666667,
        -582.834333333333,
        -582.353333333333,
        -581.844333333333,
        -581.322,
        -580.819666666667,
        -580.342666666667,
        -579.833333333333,
        -579.315666666667,
        -578.818666666667,
        -578.346666666667,
        -577.836666666667,
        -577.324,
        -576.831666666667,
        -576.363666666667,
        -575.855,
        -575.348333333333,
        -574.861333333333,
        -574.399666666667,
        -573.892333333333,
        -573.391333333333,
        -572.910333333333,
        -572.454333333333,
        -571.950666666667,
        -571.457,
        -570.982666666667,
        -570.530333333333,
        -570.035666666667,
        -569.551666666667,
        -569.087,
        -568.637333333333,
        -568.154333333333,
        -567.682333333333,
        -567.228333333333,
        -566.785,
        -566.316333333333,
        -565.859,
        -565.417,
        -564.981,
        -564.529666666667,
        -564.087666666667,
        -563.657666666667,
        -563.229,
        -562.791666666667,
        -562.36,
        -561.934,
        -561.505666666667,
        -561.070666666667,
        -560.637,
        -560.207333333333,
        -559.773333333333,
        -559.333,
        -558.895333333333,
        -558.461333333333,
        -558.021,
        -557.576,
        -557.135333333333,
        -556.701,
        -556.256666666667,
        -555.810666666667,
        -555.370333333333,
        -554.934,
        -554.489333333333,
        -554.045666666667,
        -553.605666666667,
        -553.167,
        -552.716333333333,
        -552.264333333333,
        -551.813333333333,
        -551.364333333333,
        -550.898666666667,
        -550.433666666667,
        -549.973333333333,
        -549.519,
        -549.035333333333,
        -548.560333333333,
        -548.096666666667,
        -547.639333333333,
        -547.149333333333,
        -546.671333333333,
        -546.206666666667,
        -545.745333333333,
        -545.248666666667,
        -544.767,
        -544.301666666667,
        -543.835666666667,
        -543.337333333333,
        -542.855,
        -542.390666666667,
        -541.921333333333,
        -541.421333333333,
        -540.939666666667,
        -540.476333333333,
        -540.001666666667,
        -539.501666666667,
        -539.02,
        -538.558,
        -538.077333333333,
        -537.576,
        -537.094666666667,
        -536.633333333333,
        -536.148666666667,
        -535.649333333333,
        -535.170333333333,
        -534.712666666667,
        -534.221666666667,
        -533.722,
        -533.243666666667,
        -532.787333333333,
        -532.291666666667,
        -531.794,
        -531.318,
        -530.865,
        -530.363,
        -529.865666666667,
        -529.391,
        -528.939,
        -528.434,
        -527.94,
        -527.468666666667,
        -527.020666666667,
        -526.508,
        -526.014,
        -525.543333333333,
        -525.088333333333,
        -524.579666666667,
        -524.088333333333,
        -523.621666666667,
        -523.162333333333,
        -522.654666666667,
        -522.166333333333,
        -521.703,
        -521.238666666667,
        -520.734,
        -520.247666666667,
        -519.786,
        -519.316,
        -518.811,
        -518.327,
        -517.868333333333,
        -517.393,
        -516.891333333333,
        -516.409666666667,
        -515.954,
        -515.472,
        -514.971,
        -514.491333333333,
        -514.038,
        -513.552,
        -513.053666666667,
        -512.576333333333,
        -512.127333333333,
        -511.631666666667,
        -511.132,
        -510.655666666667,
        -510.207,
        -509.708333333333,
        -509.212,
        -508.738,
        -508.294,
        -507.783333333333,
        -507.283333333333,
        -506.809666666667,
        -506.361,
        -505.849333333333,
        -505.352333333333,
        -504.881,
        -504.426666666667,
        -503.909666666667,
        -503.410333333333,
        -502.939333333333,
        -502.475666666667,
        -501.960333333333,
        -501.461333333333,
        -500.991333333333,
        -500.516666666667,
        -499.994666666667,
        -499.493,
        -499.022,
        -498.536333333333,
        -498.014,
        -497.512666666667,
        -497.045,
        -496.548,
        -496.022333333333,
        -495.523666666667,
        -495.059666666667,
        -494.555666666667,
        -494.034333333333,
        -493.54,
        -493.081333333333,
        -492.565666666667,
        -492.045333333333,
        -491.556666666667,
        -491.103,
        -490.583,
        -490.07,
        -489.589333333333,
        -489.143666666667,
        -488.614666666667,
        -488.105666666667,
        -487.631666666667,
        -487.184666666667,
        -486.659,
        -486.16,
        -485.693333333333,
        -485.241,
        -484.72,
        -484.228333333333,
        -483.769666666667,
        -483.312333333333,
        -482.803,
        -482.32,
        -481.868,
        -481.405,
        -480.900333333333,
        -480.424666666667,
        -479.978,
        -479.510666666667,
        -479.016,
        -478.548333333333,
        -478.108,
        -477.635333333333,
        -477.147,
        -476.684666666667,
        -476.249,
        -475.774,
        -475.292,
        -474.833666666667,
        -474.401333333333,
        -473.918333333333,
        -473.439333333333,
        -472.986333333333,
        -472.557333333333,
        -472.074,
        -471.601,
        -471.151333333333,
        -470.725666666667,
        -470.234666666667,
        -469.762666666667,
        -469.315,
        -468.881,
        -468.397,
        -467.931,
        -467.489,
        -467.051333333333,
        -466.569333333333,
        -466.106333333333,
        -465.666666666667,
        -465.222333333333,
        -464.745,
        -464.286,
        -463.851,
        -463.400333333333,
        -462.923666666667,
        -462.466,
        -462.032,
        -461.574666666667,
        -461.101666666667,
        -460.647333333333,
        -460.218,
        -459.755,
        -459.284,
        -458.833333333333,
        -458.407333333333,
        -457.940333333333,
        -457.472666666667,
        -457.024666666667,
        -456.602,
        -456.125333333333,
        -455.658,
        -455.213,
        -454.790666666667,
        -454.314666666667,
        -453.853,
        -453.412666666667,
        -452.985666666667,
        -452.511,
        -452.052333333333,
        -451.615666666667,
        -451.181333333333,
        -450.711666666667,
        -450.256666666667,
        -449.824666666667,
        -449.384666666667,
        -448.914,
        -448.460333333333,
        -448.03,
        -447.583666666667,
        -447.117333333333,
        -446.668333333333,
        -446.244,
        -445.791666666667,
        -445.327333333333,
        -444.881333333333,
        -444.459,
        -444.000666666667,
        -443.538666666667,
        -443.095333333333,
        -442.677666666667,
        -442.211666666667,
        -441.751666666667,
        -441.313,
        -440.898666666667,
        -440.431666666667,
        -439.976666666667,
        -439.542666666667,
        -439.123333333333,
        -438.653333333333,
        -438.199,
        -437.767,
        -437.339666666667,
        -436.876666666667,
        -436.427666666667,
        -436.001,
        -435.568666666667,
        -435.104666666667,
        -434.657666666667,
        -434.233666666667,
        -433.795333333333,
        -433.337,
        -432.895333333333,
        -432.477333333333,
        -432.032666666667,
        -431.574666666667,
        -431.134666666667,
        -430.716666666667,
        -430.266333333333,
        -429.812666666667,
        -429.377,
        -428.966,
        -428.507666666667,
        -428.054666666667,
        -427.622,
        -427.212333333333,
        -426.752666666667,
        -426.304666666667,
        -425.876333333333,
        -425.461,
        -425.000333333333,
        -424.554,
        -424.129,
        -423.708333333333,
        -423.253333333333,
        -422.811333333333,
        -422.391666666667,
        -421.964333333333,
        -421.510333333333,
        -421.072333333333,
        -420.655666666667,
        -420.222333333333,
        -419.771,
        -419.335,
        -418.921666666667,
        -418.481666666667,
        -418.031666666667,
        -417.599333333333,
        -417.189333333333,
        -416.744333333333,
        -416.297666666667,
        -415.868666666667,
        -415.464,
        -415.013,
        -414.568333333333,
        -414.143666666667,
        -413.737666666667,
        -413.285,
        -412.843333333333,
        -412.421,
        -412.008,
        -411.556,
        -411.125,
        -410.728333333333,
        -410.312666666667,
        -409.857666666667,
        -409.420666666667,
        -409.011333333333,
        -408.585666666667,
        -408.119666666667,
        -407.674333333333,
        -407.264333333333,
        -406.833,
        -406.387333333333,
        -405.956666666667,
        -405.575333333333,
        -405.116,
        -404.662,
        -404.232666666667,
        -403.826,
        -403.38,
        -402.937333333333,
        -402.513,
        -402.114,
        -401.655333333333,
        -401.207,
        -400.780333333333,
        -400.367666666667,
        -399.921,
        -399.492666666667,
        -399.074666666667,
        -398.657333333333,
        -398.19,
        -397.736333333333,
        -397.321666666667,
        -396.895,
        -396.441333333333,
        -396.005,
        -395.597333333333,
        -395.160666666667,
        -394.703,
        -394.263333333333,
        -393.850333333333,
        -393.407,
        -392.972,
        -392.548666666667,
        -392.158333333333,
        -391.766333333333,
        -391.374,
        -390.952
    ]
}